# Temperatur-Widerstands-Charakteristik für Platin-Messwiderstände Pt-100
# T[°C], R[Ω]
-200,18.44
-190,22.71
-180,27.03
-170,31.28
-160,35.48
-150,39.65
-140,43.8
-130,47.93
-120,52.04
-110,56.13
-100,60.2
-90,64.25
-80,68.28
-70,72.29
-60,76.28
-50,80.25
-40,84.21
-30,88.17
-20,92.13
-10,96.07
0,100
10,103.9
20,107.79
30,111.67
40,115.54
